#Acq. time (s)=	10
#Accumulations=	5
#AutoExposure=	Off
#Spike filter=	Multiple accum.
#Readout mode=	Signal
#DeNoise=	Off
#ICS correction=	Off
#Dark correction=	Off
#Inst. Process=	Off
#Detector Gain=	High Sensitivity
#Detector ADC=	45 kHz 
#Detector temperature (°C)=	-50.16
#Instrument=	OSD
#Detector=	Syncerity
#Grating=	685
#Laser (nm)=	785 
#Spectro (cm-¹)=	2019.74
#Laser power=	50
#E-Cal_Neon=	0
#Full time(s)=	51
#AC=	Not calibrated
#Project=	A
#Sample=	B
#Site=	C
#Title=	CC-124-TAP-1_3
#Remark=	
#Date=	08.10.2024 13:45
#Acquired=	08.10.2024 13:45:14
#AxisType[0]=Intens
#AxisUnit[0]=Cnt
#AxisType[1]=Spectr
#AxisUnit[1]=1/cm
3513.15	15
3511.88	16.5
3510.6	13
3509.33	18
3508.05	17.5
3506.77	21.5
3505.49	23
3504.22	17
3502.94	22.5
3501.66	19.5
3500.38	21
3499.1	19.5
3497.82	22.5
3496.54	22
3495.26	19
3493.98	20.5
3492.7	23
3491.42	22.5
3490.14	18
3488.85	19
3487.57	20.5
3486.29	18.5
3485.01	21.5
3483.72	18.5
3482.44	23.5
3481.15	18
3479.87	23.5
3478.59	19
3477.3	22
3476.02	22.5
3474.73	22
3473.44	20
3472.16	17
3470.87	17
3469.58	25.5
3468.3	21
3467.01	27
3465.72	22.5
3464.43	23.5
3463.14	24.5
3461.85	24
3460.56	24.5
3459.28	26
3457.99	27.5
3456.69	23.5
3455.4	27
3454.11	18.5
3452.82	25
3451.53	25
3450.24	27
3448.95	26.5
3447.65	24
3446.36	23.5
3445.07	24
3443.77	24
3442.48	25.5
3441.18	22.5
3439.89	29.5
3438.59	21
3437.3	24.5
3436	24
3434.71	28
3433.41	27.5
3432.11	23
3430.81	28.5
3429.52	24
3428.22	27
3426.92	26
3425.62	26
3424.32	32.5
3423.02	31.5
3421.72	24
3420.42	30
3419.12	29
3417.82	29
3416.52	33
3415.22	29
3413.92	24
3412.62	30
3411.31	33
3410.01	26.5
3408.71	26.5
3407.41	26
3406.1	31
3404.8	24
3403.49	31
3402.19	29.5
3400.88	26
3399.58	29.5
3398.27	31
3396.97	29.5
3395.66	31
3394.35	30.5
3393.05	28
3391.74	28.5
3390.43	29
3389.12	34.5
3387.82	30.5
3386.51	31.5
3385.2	34
3383.89	33.5
3382.58	32
3381.27	35
3379.96	32.5
3378.65	35.5
3377.34	31
3376.02	27
3374.71	34.5
3373.4	33.5
3372.09	37.5
3370.77	29
3369.46	30.5
3368.15	34
3366.83	32.5
3365.52	28.5
3364.2	38
3362.89	29
3361.57	34
3360.26	30
3358.94	35
3357.63	31
3356.31	30
3354.99	34
3353.67	41.5
3352.36	41.5
3351.04	31
3349.72	35
3348.4	33
3347.08	35.5
3345.76	36.5
3344.44	34
3343.12	35.5
3341.8	37
3340.48	33.5
3339.16	39
3337.84	37.5
3336.52	36.5
3335.2	37.5
3333.87	39
3332.55	40
3331.23	37.5
3329.9	36.5
3328.58	40
3327.25	34
3325.93	40
3324.61	38
3323.28	37
3321.95	34
3320.63	36
3319.3	34
3317.98	37.5
3316.65	37.5
3315.32	39
3313.99	37
3312.66	36.5
3311.34	45
3310.01	38
3308.68	42.5
3307.35	34
3306.02	40
3304.69	41.5
3303.36	42.5
3302.03	40.5
3300.7	45
3299.36	40
3298.03	43
3296.7	38
3295.37	44.5
3294.04	42
3292.7	40.5
3291.37	42
3290.03	40.5
3288.7	40
3287.36	41.5
3286.03	42
3284.69	44
3283.36	49
3282.02	40.5
3280.69	48.5
3279.35	41.5
3278.01	42
3276.68	42
3275.34	49.5
3274	46
3272.66	40.5
3271.32	41.5
3269.98	43.5
3268.64	48.5
3267.3	41.5
3265.96	40.5
3264.62	42.5
3263.28	49.5
3261.94	43.5
3260.6	46.5
3259.26	46
3257.92	44.5
3256.57	48
3255.23	44
3253.89	47.5
3252.54	44.5
3251.2	47.5
3249.85	41
3248.51	52
3247.16	47
3245.82	47.5
3244.47	45
3243.13	52
3241.78	47
3240.43	45.5
3239.09	47
3237.74	42
3236.39	45.5
3235.04	41
3233.69	44.5
3232.34	46.5
3230.99	43
3229.65	46.5
3228.3	47.5
3226.94	46
3225.59	43
3224.24	47
3222.89	48.5
3221.54	50.5
3220.19	50
3218.84	46.5
3217.48	46
3216.13	49.5
3214.78	53.5
3213.42	48.5
3212.07	51
3210.71	52.5
3209.36	52
3208	53.5
3206.65	48
3205.29	48
3203.93	46.5
3202.58	49.5
3201.22	46
3199.86	48
3198.51	54
3197.15	48
3195.79	49.5
3194.43	49
3193.07	50.5
3191.71	46
3190.35	48.5
3188.99	48
3187.63	50
3186.27	49
3184.91	50
3183.55	54
3182.19	52
3180.82	53
3179.46	60
3178.1	53.5
3176.73	52.5
3175.37	56
3174.01	51.5
3172.64	56.5
3171.28	53
3169.91	49
3168.55	52
3167.18	55.5
3165.81	58.5
3164.45	50
3163.08	55
3161.71	58
3160.35	54
3158.98	51
3157.61	52
3156.24	55
3154.87	59.5
3153.5	59
3152.13	54
3150.76	61.5
3149.39	52.5
3148.02	60
3146.65	57
3145.28	56.5
3143.91	59.5
3142.54	60.5
3141.16	58
3139.79	60
3138.42	61.5
3137.04	62
3135.67	60
3134.29	63
3132.92	62
3131.54	60
3130.17	60
3128.79	61
3127.42	55
3126.04	61.5
3124.66	64
3123.29	62.5
3121.91	60.5
3120.53	57.5
3119.15	58
3117.77	58
3116.39	58
3115.02	64.5
3113.64	57
3112.26	62
3110.88	60.5
3109.49	56
3108.11	67.5
3106.73	63.5
3105.35	62
3103.97	70
3102.59	62
3101.2	64.5
3099.82	65
3098.44	65.5
3097.05	65
3095.67	65
3094.28	64.5
3092.9	67
3091.51	61.5
3090.13	65
3088.74	66.5
3087.35	67
3085.97	62
3084.58	66.5
3083.19	68.5
3081.8	71
3080.42	61
3079.03	64
3077.64	71
3076.25	64.5
3074.86	63.5
3073.47	68
3072.08	67
3070.69	66
3069.3	67
3067.91	71
3066.51	70
3065.12	66
3063.73	69
3062.34	70
3060.94	66
3059.55	80.5
3058.16	73.5
3056.76	77
3055.37	69
3053.97	71.5
3052.58	66
3051.18	70
3049.78	75.5
3048.39	76
3046.99	70.5
3045.59	72.5
3044.2	73
3042.8	76
3041.4	68
3040	73.5
3038.6	77.5
3037.2	73
3035.8	76.5
3034.4	74.5
3033	74
3031.6	76
3030.2	74
3028.8	75
3027.4	74
3025.99	73.5
3024.59	69
3023.19	77
3021.78	78
3020.38	82.5
3018.98	77
3017.57	78
3016.17	78
3014.76	76.5
3013.36	78
3011.95	79.5
3010.54	80.5
3009.14	84
3007.73	87
3006.32	86
3004.92	80.5
3003.51	83
3002.1	76.5
3000.69	80
2999.28	83
2997.87	73
2996.46	77.5
2995.05	81
2993.64	81.5
2992.23	83.5
2990.82	79.5
2989.41	78.5
2988	75
2986.58	79
2985.17	87
2983.76	76.5
2982.34	81
2980.93	84
2979.52	82.5
2978.1	90.5
2976.69	87
2975.27	84.5
2973.86	87
2972.44	94.5
2971.02	93
2969.61	92
2968.19	92
2966.77	87
2965.35	96
2963.94	90
2962.52	91.5
2961.1	94.5
2959.68	98
2958.26	98
2956.84	95
2955.42	92.5
2954	100.5
2952.58	101.5
2951.16	93
2949.73	89
2948.31	92.5
2946.89	95
2945.47	93
2944.04	94.5
2942.62	98.5
2941.19	99
2939.77	106.5
2938.34	95.5
2936.92	101.5
2935.49	95
2934.07	99.5
2932.64	101.5
2931.22	101.5
2929.79	97.5
2928.36	100
2926.93	106.5
2925.5	105.5
2924.08	106
2922.65	108.5
2921.22	105
2919.79	95
2918.36	101.5
2916.93	103.5
2915.5	99
2914.07	111
2912.64	114.5
2911.2	107
2909.77	116
2908.34	94.5
2906.91	108.5
2905.47	106.5
2904.04	104
2902.61	100.5
2901.17	112
2899.74	108.5
2898.3	112
2896.87	110
2895.43	112
2893.99	106
2892.56	107.5
2891.12	113
2889.68	112.5
2888.25	112
2886.81	110.5
2885.37	109
2883.93	113.5
2882.49	112
2881.05	112.5
2879.61	110.5
2878.17	118.5
2876.73	115.5
2875.29	123
2873.85	115
2872.41	112
2870.97	122
2869.52	114.5
2868.08	114
2866.64	118
2865.19	124
2863.75	113.5
2862.31	111
2860.86	110.5
2859.42	115
2857.97	115.5
2856.52	119.5
2855.08	117.5
2853.63	122
2852.19	128
2850.74	114
2849.29	118
2847.84	114
2846.39	128
2844.95	127
2843.5	127.5
2842.05	132
2840.6	122.5
2839.15	116
2837.7	125
2836.25	124
2834.79	133.5
2833.34	124
2831.89	134.5
2830.44	128.5
2828.99	128.5
2827.53	129
2826.08	136.5
2824.62	132
2823.17	126.5
2821.72	129.5
2820.26	128.5
2818.81	133
2817.35	130
2815.89	137
2814.44	127
2812.98	124
2811.52	135
2810.06	127.5
2808.61	133
2807.15	137
2805.69	122
2804.23	143.5
2802.77	137.5
2801.31	130.5
2799.85	138
2798.39	139
2796.93	142
2795.47	145
2794.01	140.5
2792.54	143
2791.08	139
2789.62	148.5
2788.16	137.5
2786.69	137.5
2785.23	141
2783.76	132
2782.3	135
2780.83	140
2779.37	149.5
2777.9	145.5
2776.44	145
2774.97	147
2773.5	141.5
2772.04	143.5
2770.57	145
2769.1	150
2767.63	151
2766.16	144
2764.69	149.5
2763.22	142.5
2761.75	141
2760.28	143
2758.81	150.5
2757.34	158.5
2755.87	149.5
2754.4	152
2752.93	151
2751.45	155
2749.98	161
2748.51	149.5
2747.03	153.5
2745.56	142
2744.09	149
2742.61	160
2741.14	153
2739.66	158
2738.18	160.5
2736.71	154.5
2735.23	153
2733.75	155
2732.28	157
2730.8	167.5
2729.32	160
2727.84	167.5
2726.36	165
2724.88	162.5
2723.4	166
2721.92	163
2720.44	167
2718.96	167.5
2717.48	160
2716	168.5
2714.52	164
2713.04	161.5
2711.55	167
2710.07	171
2708.59	161.5
2707.1	166
2705.62	164.5
2704.13	180
2702.65	168
2701.16	175.5
2699.68	166
2698.19	170.5
2696.7	171.5
2695.22	170.5
2693.73	174
2692.24	185.5
2690.76	176
2689.27	177
2687.78	164
2686.29	171
2684.8	174
2683.31	177.5
2681.82	180
2680.33	171
2678.84	173
2677.35	181
2675.85	182
2674.36	189.5
2672.87	181.5
2671.38	186
2669.88	183
2668.39	194
2666.9	184.5
2665.4	183
2663.91	177
2662.41	186
2660.92	188.5
2659.42	182.5
2657.92	189.5
2656.43	186
2654.93	178
2653.43	186
2651.93	195
2650.44	194.5
2648.94	191
2647.44	201
2645.94	197
2644.44	195
2642.94	204.5
2641.44	196
2639.94	191
2638.44	185.5
2636.93	190
2635.43	190.5
2633.93	197.5
2632.43	195
2630.92	200.5
2629.42	205.5
2627.92	196.5
2626.41	199
2624.91	206.5
2623.4	195
2621.9	200.5
2620.39	204
2618.88	204.5
2617.38	201.5
2615.87	205
2614.36	206
2612.86	206
2611.35	207
2609.84	211.5
2608.33	208
2606.82	196.5
2605.31	207
2603.8	208
2602.29	213.5
2600.78	209
2599.27	212
2597.76	215
2596.24	205
2594.73	212
2593.22	204.5
2591.71	210
2590.19	215.5
2588.68	216.5
2587.16	224
2585.65	208.5
2584.13	218.5
2582.62	208
2581.1	217.5
2579.59	208.5
2578.07	220
2576.55	221
2575.04	207.5
2573.52	218
2572	226
2570.48	226.5
2568.96	228.5
2567.44	220
2565.92	216
2564.4	230
2562.88	231
2561.36	219
2559.84	223
2558.32	224
2556.8	226
2555.27	233.5
2553.75	231
2552.23	224
2550.71	226
2549.18	229.5
2547.66	225
2546.13	233.5
2544.61	234.5
2543.08	235
2541.56	236
2540.03	234
2538.5	226
2536.98	243
2535.45	233
2533.92	234.5
2532.39	234.5
2530.86	234
2529.34	246
2527.81	236.5
2526.28	238.5
2524.75	245
2523.22	236.5
2521.68	226.5
2520.15	257.5
2518.62	241.5
2517.09	240
2515.56	233.5
2514.02	247
2512.49	242
2510.96	252
2509.42	251
2507.89	255.5
2506.35	253
2504.82	252.5
2503.28	250
2501.75	251
2500.21	247
2498.67	253
2497.14	258
2495.6	263.5
2494.06	254
2492.52	256.5
2490.99	253
2489.45	250
2487.91	248
2486.37	255
2484.83	255
2483.29	264.5
2481.75	254
2480.2	267
2478.66	266.5
2477.12	271.5
2475.58	254.5
2474.03	269
2472.49	274
2470.95	267.5
2469.4	261
2467.86	271
2466.31	265
2464.77	276
2463.22	274
2461.68	272
2460.13	268
2458.58	273.5
2457.04	276.5
2455.49	283
2453.94	277
2452.39	270
2450.84	286
2449.29	278
2447.74	278.5
2446.2	276.5
2444.64	267.5
2443.09	287
2441.54	282.5
2439.99	276
2438.44	276.5
2436.89	288
2435.33	291.5
2433.78	282.5
2432.23	272
2430.67	286
2429.12	279
2427.56	287.5
2426.01	291.5
2424.45	291
2422.9	288
2421.34	291.5
2419.79	282
2418.23	288
2416.67	290
2415.11	285.5
2413.56	286
2412	293.5
2410.44	293.5
2408.88	298
2407.32	281.5
2405.76	301.5
2404.2	306
2402.64	307.5
2401.08	299.5
2399.51	306
2397.95	293.5
2396.39	299.5
2394.83	295
2393.26	308
2391.7	296.5
2390.13	310
2388.57	307.5
2387.01	314.5
2385.44	311
2383.87	306.5
2382.31	305
2380.74	312
2379.18	308
2377.61	318
2376.04	304
2374.47	308
2372.9	322
2371.33	315.5
2369.77	320
2368.2	323.5
2366.63	310.5
2365.06	316
2363.48	309
2361.91	314.5
2360.34	333.5
2358.77	316.5
2357.2	306.5
2355.62	313
2354.05	314
2352.48	337
2350.9	321
2349.33	318
2347.75	318
2346.18	314
2344.6	332.5
2343.03	324.5
2341.45	319
2339.87	339.5
2338.3	332.5
2336.72	345.5
2335.14	344.5
2333.56	351.5
2331.98	367.5
2330.41	374.5
2328.83	375
2327.25	363
2325.67	364
2324.09	350.5
2322.5	350
2320.92	343.5
2319.34	347
2317.76	337
2316.18	338
2314.59	342.5
2313.01	322.5
2311.42	342.5
2309.84	350
2308.26	347
2306.67	342.5
2305.08	342
2303.5	339.5
2301.91	352
2300.33	360.5
2298.74	346.5
2297.15	350.5
2295.56	358
2293.98	346
2292.39	358
2290.8	357
2289.21	352
2287.62	360
2286.03	366.5
2284.44	361
2282.85	365.5
2281.25	360.5
2279.66	361
2278.07	369
2276.48	353.5
2274.88	373
2273.29	371
2271.7	363.5
2270.1	358.5
2268.51	370.5
2266.91	371.5
2265.32	353
2263.72	363
2262.12	375
2260.53	353
2258.93	370.5
2257.33	371
2255.74	381
2254.14	381.5
2252.54	379.5
2250.94	380.5
2249.34	386.5
2247.74	375
2246.14	376
2244.54	382.5
2242.94	392
2241.34	386
2239.73	385.5
2238.13	396.5
2236.53	384.5
2234.93	389.5
2233.32	387
2231.72	387.5
2230.11	390
2228.51	399.5
2226.9	399
2225.3	399
2223.69	377.5
2222.09	408
2220.48	392
2218.87	398.5
2217.26	381
2215.66	404
2214.05	397.5
2212.44	399.5
2210.83	398
2209.22	407.5
2207.61	400.5
2206	412.5
2204.39	407.5
2202.78	388.5
2201.17	408
2199.55	409.5
2197.94	409.5
2196.33	401
2194.72	407.5
2193.1	426.5
2191.49	419.5
2189.87	423.5
2188.26	405
2186.64	400.5
2185.03	418
2183.41	417.5
2181.8	426.5
2180.18	429.5
2178.56	423.5
2176.94	413
2175.33	438
2173.71	430
2172.09	424.5
2170.47	431.5
2168.85	420
2167.23	404
2165.61	428.5
2163.99	422
2162.37	439.5
2160.74	435
2159.12	435
2157.5	413
2155.88	426.5
2154.25	433.5
2152.63	459.5
2151.01	438
2149.38	445
2147.76	441
2146.13	441
2144.5	448
2142.88	447
2141.25	445
2139.62	439.5
2138	447.5
2136.37	446.5
2134.74	440.5
2133.11	464.5
2131.48	455.5
2129.85	449
2128.22	453
2126.59	454
2124.96	471
2123.33	456
2121.7	468
2120.07	463.5
2118.44	458
2116.8	461
2115.17	467.5
2113.54	461
2111.9	454.5
2110.27	469.5
2108.63	456
2107	469
2105.36	471
2103.73	459.5
2102.09	465.5
2100.45	453
2098.82	478.5
2097.18	471
2095.54	462
2093.9	473.5
2092.26	474.5
2090.62	481
2088.98	479
2087.34	464
2085.7	482.5
2084.06	453
2082.42	487
2080.78	483
2079.14	490
2077.49	479
2075.85	481.5
2074.21	465.5
2072.56	486
2070.92	489
2069.27	483.5
2067.63	499.5
2065.98	498.5
2064.34	455.5
2062.69	495
2061.04	505
2059.4	506
2057.75	484
2056.1	516
2054.45	501
2052.8	495.5
2051.16	490
2049.51	518.5
2047.86	514
2046.21	531
2044.55	509.5
2042.9	506.5
2041.25	518
2039.6	525
2037.95	507
2036.29	531
2034.64	515
2032.99	516
2031.33	532.5
2029.68	513.5
2028.02	510.5
2026.37	507.5
2024.71	511
2023.06	519
2021.4	518
2019.74	530.5
2018.08	537
2016.43	537
2014.77	551
2013.11	543
2011.45	545
2009.79	537
2008.13	533
2006.47	540
2004.81	545.5
2003.15	546.5
2001.49	536
1999.82	537.5
1998.16	536.5
1996.5	541
1994.84	542
1993.17	538
1991.51	558.5
1989.84	554.5
1988.18	557
1986.51	551.5
1984.85	552
1983.18	553
1981.51	560
1979.85	566.5
1978.18	552
1976.51	546.5
1974.84	553.5
1973.18	549
1971.51	562
1969.84	560
1968.17	557.5
1966.5	564.5
1964.83	574
1963.15	564.5
1961.48	581.5
1959.81	584.5
1958.14	571
1956.47	576.5
1954.79	580.5
1953.12	594
1951.44	598.5
1949.77	592.5
1948.1	586
1946.42	601.5
1944.74	586
1943.07	564
1941.39	587.5
1939.71	587
1938.04	600
1936.36	585
1934.68	596
1933	601
1931.32	583
1929.64	600.5
1927.96	613.5
1926.28	603.5
1924.6	578
1922.92	586.5
1921.24	588
1919.56	613
1917.87	615.5
1916.19	597
1914.51	604.5
1912.82	611.5
1911.14	602.5
1909.46	602
1907.77	619
1906.09	600.5
1904.4	602
1902.71	610.5
1901.03	627
1899.34	610
1897.65	609
1895.96	623
1894.28	617
1892.59	603.5
1890.9	610.5
1889.21	608.5
1887.52	616.5
1885.83	627.5
1884.14	625
1882.45	614
1880.75	602
1879.06	603
1877.37	623.5
1875.68	660
1873.98	619
1872.29	631.5
1870.59	636
1868.9	629.5
1867.2	643
1865.51	634
1863.81	643
1862.12	635.5
1860.42	633.5
1858.72	648
1857.02	658
1855.33	644
1853.63	632.5
1851.93	638.5
1850.23	655
1848.53	651
1846.83	658
1845.13	658
1843.43	669.5
1841.73	669
1840.02	660.5
1838.32	665.5
1836.62	663
1834.92	683
1833.21	658
1831.51	686
1829.8	679
1828.1	686.5
1826.39	674.5
1824.69	684.5
1822.98	671.5
1821.28	675
1819.57	683.5
1817.86	692
1816.15	681.5
1814.45	686.5
1812.74	683.5
1811.03	692.5
1809.32	668.5
1807.61	686.5
1805.9	714.5
1804.19	675.5
1802.48	697
1800.76	700.5
1799.05	692.5
1797.34	699.5
1795.63	696.5
1793.91	706
1792.2	718.5
1790.48	708.5
1788.77	715
1787.05	716.5
1785.34	726.5
1783.62	730.5
1781.91	712
1780.19	707.5
1778.47	706.5
1776.76	741
1775.04	733.5
1773.32	709
1771.6	716
1769.88	736
1768.16	736
1766.44	720.5
1764.72	727
1763	747.5
1761.28	728
1759.56	746.5
1757.83	733.5
1756.11	761
1754.39	734.5
1752.66	720.5
1750.94	746.5
1749.21	737.5
1747.49	765.5
1745.76	756
1744.04	750
1742.31	757
1740.59	736
1738.86	784
1737.13	772.5
1735.4	767
1733.68	758
1731.95	757
1730.22	769.5
1728.49	771.5
1726.76	771.5
1725.03	760
1723.3	763
1721.56	774.5
1719.83	761.5
1718.1	786
1716.37	760.5
1714.63	759.5
1712.9	780.5
1711.17	771
1709.43	778.5
1707.7	766.5
1705.96	778.5
1704.23	785.5
1702.49	785.5
1700.75	765.5
1699.02	776
1697.28	776.5
1695.54	790.5
1693.8	795.5
1692.07	784.5
1690.33	804
1688.59	793
1686.85	794
1685.11	809
1683.37	804
1681.62	797
1679.88	811
1678.14	798.5
1676.4	802.5
1674.65	806
1672.91	830
1671.17	833.5
1669.42	831.5
1667.68	839.5
1665.93	802
1664.19	822.5
1662.44	814
1660.69	828
1658.95	807.5
1657.2	798
1655.45	799.5
1653.7	828.5
1651.96	828
1650.21	824.5
1648.46	836.5
1646.71	851.5
1644.96	857.5
1643.21	847
1641.45	841.5
1639.7	841
1637.95	847
1636.2	843.5
1634.45	841
1632.69	838.5
1630.94	862.5
1629.18	864.5
1627.43	852.5
1625.67	865
1623.92	840
1622.16	849
1620.41	864
1618.65	894.5
1616.89	863
1615.13	886
1613.37	884
1611.62	920.5
1609.86	911
1608.1	920
1606.34	910.5
1604.58	919
1602.82	901
1601.05	899
1599.29	922
1597.53	913.5
1595.77	901
1594.01	902
1592.24	889
1590.48	897
1588.71	932
1586.95	900
1585.18	913
1583.42	922.5
1581.65	923
1579.88	920
1578.12	926.5
1576.35	929.5
1574.58	947
1572.81	938
1571.05	939.5
1569.28	943.5
1567.51	955
1565.74	954.5
1563.97	962
1562.19	962
1560.42	956.5
1558.65	976.5
1556.88	1007
1555.11	1022
1553.33	1063.5
1551.56	1052
1549.79	1052
1548.01	1040
1546.24	1032.5
1544.46	1016
1542.69	1045
1540.91	1044.5
1539.13	1069
1537.36	1091.5
1535.58	1148
1533.8	1151
1532.02	1203
1530.24	1231
1528.46	1227
1526.68	1242
1524.9	1295.5
1523.12	1281.5
1521.34	1250.5
1519.56	1233.5
1517.78	1173
1516	1164.5
1514.21	1106.5
1512.43	1082.5
1510.65	1052
1508.86	1028
1507.08	1028.5
1505.29	1008
1503.51	1004.5
1501.72	998.5
1499.93	990
1498.15	1012.5
1496.36	993.5
1494.57	1021.5
1492.78	1006
1491	1017.5
1489.21	1026.5
1487.42	1020
1485.63	1025
1483.84	1035
1482.05	1029.5
1480.25	1031
1478.46	1022
1476.67	1029.5
1474.88	1002
1473.09	1011
1471.29	1025.5
1469.5	1020.5
1467.7	1036.5
1465.91	1010
1464.11	1006
1462.32	1035.5
1460.52	1035
1458.72	1048.5
1456.93	1041.5
1455.13	1048.5
1453.33	1041.5
1451.53	1055
1449.74	1037
1447.94	1059
1446.14	1067.5
1444.34	1066
1442.54	1075
1440.73	1098
1438.93	1095
1437.13	1098.5
1435.33	1082.5
1433.53	1106
1431.72	1084
1429.92	1098
1428.11	1081.5
1426.31	1042.5
1424.51	1070.5
1422.7	1053.5
1420.89	1076.5
1419.09	1073
1417.28	1073
1415.47	1070.5
1413.66	1061.5
1411.86	1065.5
1410.05	1074.5
1408.24	1075
1406.43	1052.5
1404.62	1072.5
1402.81	1085.5
1401	1100
1399.19	1105
1397.38	1102
1395.56	1113.5
1393.75	1095.5
1391.94	1116
1390.12	1114.5
1388.31	1135
1386.49	1108.5
1384.68	1106
1382.87	1139
1381.05	1122.5
1379.23	1113.5
1377.42	1110
1375.6	1114.5
1373.78	1135
1371.96	1150.5
1370.14	1112
1368.33	1136
1366.51	1122.5
1364.69	1095.5
1362.87	1129.5
1361.05	1125
1359.22	1108
1357.4	1120
1355.58	1164
1353.76	1131
1351.93	1140
1350.11	1142
1348.29	1140
1346.46	1139
1344.64	1156.5
1342.81	1174
1340.99	1173.5
1339.16	1174
1337.33	1196.5
1335.51	1198.5
1333.68	1235
1331.85	1239
1330.02	1270
1328.19	1310.5
1326.36	1324.5
1324.53	1293.5
1322.7	1301
1320.87	1280
1319.04	1235.5
1317.21	1231.5
1315.38	1223
1313.55	1208.5
1311.71	1237.5
1309.88	1226.5
1308.05	1235.5
1306.21	1238.5
1304.38	1241
1302.54	1228.5
1300.71	1232.5
1298.87	1242.5
1297.03	1215
1295.2	1245.5
1293.36	1224
1291.52	1262
1289.68	1271.5
1287.84	1283.5
1286	1311.5
1284.16	1283.5
1282.32	1265.5
1280.48	1289.5
1278.64	1238
1276.8	1243.5
1274.96	1248.5
1273.12	1231
1271.27	1236.5
1269.43	1238
1267.59	1247.5
1265.74	1255
1263.9	1263
1262.05	1252.5
1260.21	1284
1258.36	1281
1256.51	1254.5
1254.67	1210
1252.82	1245
1250.97	1244
1249.12	1235
1247.27	1270
1245.42	1267
1243.57	1246
1241.72	1275
1239.87	1279.5
1238.02	1283
1236.17	1310.5
1234.32	1290.5
1232.47	1308.5
1230.61	1347.5
1228.76	1340.5
1226.9	1349.5
1225.05	1345
1223.2	1347
1221.34	1387
1219.48	1369.5
1217.63	1358.5
1215.77	1361
1213.91	1360
1212.06	1349
1210.2	1373.5
1208.34	1347
1206.48	1373.5
1204.62	1361
1202.76	1350
1200.9	1336.5
1199.04	1359
1197.18	1385
1195.32	1381.5
1193.46	1404
1191.59	1418.5
1189.73	1433
1187.87	1457.5
1186	1457.5
1184.14	1484
1182.27	1466
1180.41	1460
1178.54	1463.5
1176.67	1459.5
1174.81	1447.5
1172.94	1421
1171.07	1413.5
1169.2	1417.5
1167.34	1432
1165.47	1427.5
1163.6	1460
1161.73	1483
1159.86	1530
1157.99	1561
1156.11	1601.5
1154.24	1610.5
1152.37	1571
1150.5	1548.5
1148.62	1547
1146.75	1545.5
1144.88	1514.5
1143	1503.5
1141.13	1515.5
1139.25	1500
1137.37	1459.5
1135.5	1465.5
1133.62	1421.5
1131.74	1451
1129.87	1407
1127.99	1428.5
1126.11	1398
1124.23	1437
1122.35	1409.5
1120.47	1421.5
1118.59	1435.5
1116.71	1412
1114.83	1422
1112.94	1477.5
1111.06	1451.5
1109.18	1482.5
1107.29	1457
1105.41	1450.5
1103.53	1469.5
1101.64	1453.5
1099.76	1424
1097.87	1422.5
1095.98	1430
1094.1	1463.5
1092.21	1452.5
1090.32	1448.5
1088.43	1479
1086.55	1457.5
1084.66	1470
1082.77	1472
1080.88	1454
1078.99	1443
1077.1	1481.5
1075.2	1471.5
1073.31	1491
1071.42	1483.5
1069.53	1466.5
1067.63	1526.5
1065.74	1460
1063.85	1500.5
1061.95	1499
1060.06	1478
1058.16	1495
1056.26	1468
1054.37	1440.5
1052.47	1513
1050.57	1496
1048.67	1513.5
1046.78	1546
1044.88	1536.5
1042.98	1542
1041.08	1551.5
1039.18	1487.5
1037.28	1503
1035.38	1509
1033.47	1516
1031.57	1510
1029.67	1511.5
1027.77	1521
1025.86	1504.5
1023.96	1518.5
1022.05	1502
1020.15	1488
1018.24	1540
1016.34	1551
1014.43	1524.5
1012.52	1570
1010.62	1551.5
1008.71	1551.5
1006.8	1602.5
1004.89	1608.5
1002.98	1615.5
1001.07	1619.5
999.164	1622.5
997.253	1646.5
995.342	1639
993.431	1633
991.518	1635
989.606	1619.5
987.693	1647.5
985.779	1677.5
983.866	1648.5
981.951	1642
980.036	1612
978.121	1627
976.205	1606
974.289	1615
972.372	1646.5
970.455	1620.5
968.537	1622
966.619	1642.5
964.7	1623.5
962.781	1624.5
960.862	1645.5
958.941	1631.5
957.021	1634.5
955.1	1659
953.178	1643.5
951.256	1631.5
949.333	1635
947.411	1615.5
945.487	1608.5
943.563	1637
941.639	1647
939.715	1623
937.789	1657.5
935.863	1632
933.937	1636.5
932.011	1666.5
930.083	1677
928.156	1666
926.227	1667.5
924.299	1654.5
922.369	1688.5
920.44	1705
918.51	1722
916.58	1764.5
914.649	1731
912.717	1746.5
910.785	1729
908.853	1742.5
906.92	1715.5
904.986	1718.5
903.052	1702.5
901.118	1736
899.184	1709.5
897.248	1733.5
895.313	1719
893.376	1693.5
891.44	1699.5
889.502	1715.5
887.564	1708.5
885.627	1719
883.688	1770.5
881.748	1708.5
879.809	1714.5
877.869	1717
875.928	1710.5
873.987	1706
872.046	1728
870.104	1704
868.161	1751.5
866.218	1756.5
864.275	1764.5
862.331	1767.5
860.387	1781
858.442	1775.5
856.497	1766
854.55	1782
852.604	1766.5
850.658	1768
848.711	1784.5
846.763	1776.5
844.815	1764
842.866	1784.5
840.917	1791
838.967	1820.5
837.017	1783
835.066	1796
833.115	1818.5
831.163	1806
829.211	1813
827.259	1807
825.306	1814
823.353	1808
821.399	1804.5
819.444	1821
817.489	1829.5
815.533	1833.5
813.578	1828
811.621	1819
809.665	1813
807.707	1847
805.749	1826.5
803.791	1871.5
801.833	1838
799.873	1864.5
797.913	1855
795.953	1832.5
793.992	1850.5
792.031	1887.5
790.069	1854.5
788.107	1905
786.145	1903
784.181	1848
782.218	1834
780.254	1858.5
778.289	1889
776.324	1903
774.358	1925.5
772.392	1917.5
770.426	1917.5
768.458	1914
766.491	1910.5
764.523	1925.5
762.555	1958
760.585	1972
758.616	1966.5
756.647	1985
754.676	2016
752.705	2004.5
750.734	2028
748.762	2079
746.79	2048
744.817	2087.5
742.844	2059.5
740.87	2067.5
738.895	2096.5
736.921	2031
734.945	2022.5
732.969	2003.5
730.993	2006.5
729.017	1976
727.039	2012
725.062	1955.5
723.083	1996.5
721.105	2037
719.125	1998
717.145	2007
715.166	2033
713.185	2009
711.204	2020
709.222	2023.5
707.24	2063.5
705.258	2064
703.274	2044.5
701.291	2058
699.307	2048
697.323	2043.5
695.337	2077
693.352	2047.5
691.366	2052.5
689.38	2071
687.392	2063.5
685.405	2057
683.417	2087
681.429	2108
679.439	2080
677.45	2098.5
675.46	2081.5
673.469	2099.5
671.479	2111
669.487	2113.5
667.495	2081
665.503	2124
663.51	2126
661.517	2093
659.523	2122.5
657.528	2149
655.534	2144
653.538	2141.5
651.543	2134
649.546	2138
647.549	2151
645.552	2158.5
643.555	2164
641.556	2168
639.557	2154
637.558	2162
635.558	2166
633.558	2186.5
631.558	2206
629.556	2196
627.554	2180
625.552	2194.5
623.55	2218.5
621.546	2223
619.543	2226.5
617.538	2201.5
615.534	2217
613.529	2189.5
611.523	2239
609.516	2221.5
607.51	2228
605.503	2233
603.495	2246.5
601.488	2251
599.479	2253.5
597.47	2275.5
595.46	2241.5
593.45	2276.5
591.439	2259
589.428	2240
587.417	2280.5
585.405	2284.5
583.392	2274
581.379	2298
579.365	2296.5
577.351	2335
575.337	2326.5
573.322	2305.5
571.306	2327.5
569.29	2333.5
567.274	2322.5
565.256	2336
563.238	2356.5
561.22	2334.5
559.202	2356.5
557.183	2348
555.164	2383.5
553.144	2367
551.123	2358.5
549.102	2381
547.08	2358.5
545.058	2373.5
543.036	2378.5
541.013	2367.5
538.989	2339
536.966	2352
534.941	2380.5
532.916	2366.5
530.891	2382.5
528.864	2348
526.838	2398
524.811	2369
522.784	2385
520.755	2366.5
518.727	2383
516.698	2425
514.668	2440.5
512.638	2391.5
510.608	2420
508.577	2416
506.545	2424
504.514	2415.5
502.48	2396
500.448	2429
498.414	2435
496.38	2416.5
494.346	2468.5
492.31	2421.5
490.275	2447
488.239	2418
486.202	2438.5
484.166	2448.5
482.128	2474.5
480.09	2473.5
478.052	2486
476.013	2448.5
473.973	2469.5
471.933	2440
469.893	2466
467.851	2474.5
465.811	2507
463.768	2481.5
461.725	2484
459.683	2453
457.639	2515.5
455.595	2490
453.55	2489.5
451.506	2505.5
449.46	2510.5
447.414	2512
445.367	2503.5
443.32	2503
441.273	2537.5
439.224	2541.5
437.176	2521.5
435.127	2584
433.077	2530.5
431.028	2571.5
428.977	2579.5
426.926	2552
424.874	2578.5
422.822	2566.5
420.769	2580
418.716	2556.5
416.663	2569
414.608	2607.5
412.554	2597.5
410.499	2570
408.443	2607
406.387	2595
404.33	2619
402.273	2629
400.215	2664
398.157	2606.5
396.098	2640.5
394.039	2652
391.979	2613
389.919	2630
387.859	2607
385.798	2639.5
383.735	2594
381.673	2624
379.611	2612
377.548	2599.5
375.484	2634.5
373.419	2623
371.354	2663.5
369.29	2630.5
367.224	2603
365.157	2616.5
363.09	2664.5
361.023	2665.5
358.955	2655
356.887	2620
354.818	2643
352.749	2649
350.679	2682
348.609	2651.5
346.538	2657.5
344.467	2670
342.395	2689
340.322	2677.5
338.25	2700
336.176	2688
334.102	2682.5
332.027	2695
329.953	2677
327.877	2689
325.801	2704
323.725	2666.5
321.647	2662.5
319.57	2666.5
317.492	2705
315.414	2698
313.335	2688
311.255	2691
309.174	2690.5
307.095	2662
305.014	2689
302.932	2679.5
300.85	2676
298.767	2684.5
296.684	2672
294.6	2687
292.516	2714
290.432	2645.5
288.347	2711.5
286.261	2656
284.174	2667
282.087	2720.5
280.001	2676.5
277.913	2708
275.824	2693
273.736	2682.5
271.646	2729.5
269.557	2692.5
267.466	2752
265.375	2706.5
263.283	2739.5
261.192	2712.5
259.099	2707.5
257.007	2695.5
254.913	2723.5
252.819	2716.5
250.725	2687
248.63	2685.5
246.535	2698
244.439	2693.5
242.342	2703.5
240.245	2691.5
238.148	2708.5
236.049	2703.5
233.951	2659
231.851	2666.5
229.753	2704
227.652	2665.5
225.552	2694.5
223.451	2716
221.349	2679.5
219.246	2714
217.143	2685
215.04	2718
212.937	2701
210.832	2740
208.727	2723
206.623	2769
204.516	2702
202.41	2738
200.303	2733
198.196	2718.5
196.088	2733
193.98	2762
191.871	2712.5
189.762	2694
187.651	2707
185.541	2704.5
183.43	2710
181.319	2695
179.206	2711
177.094	2702.5
174.981	2726.5
172.867	2661.5
170.753	2697.5
168.638	2629.5
166.523	2658
164.408	2657.5
162.291	2673.5
160.174	2638
158.057	2646
155.939	2625
153.821	2608.5
151.702	2577
149.583	2546.5
147.463	2522
145.343	2489.5
143.222	2471
141.101	2397
138.978	2384.5
136.856	2374.5
134.734	2334
132.61	2240.5
130.486	2194.5
128.361	2172
126.236	2096
124.111	2007
121.984	1920
119.858	1788
117.73	1702.5
115.603	1621
113.475	1512.5
111.346	1350.5
109.217	1223.5
107.087	1122
104.956	991
102.826	888
100.694	857.5
98.563	810.5
96.4298	747
94.2969	709.5
92.1642	725
90.0299	700
87.8957	658.5
